Time [s]	Eng. strain [-]	Cast-800-20C-007 [MPa]
0.000000	0.000008	1.548932
0.000001	0.000029	5.838732
0.000002	0.000043	8.697293
0.000003	0.000063	12.640144
0.000004	0.000082	16.435141
0.000005	0.000102	20.476553
0.000006	0.000134	26.883655
0.000007	0.000174	34.818586
0.000008	0.000215	42.950674
0.000009	0.000263	52.512064
0.000010	0.000313	62.664858
0.000011	0.000355	71.092667
0.000012	0.000395	78.929070
0.000013	0.000436	87.159754
0.000014	0.000472	94.355454
0.000015	0.000504	100.762590
0.000016	0.000534	106.726147
0.000017	0.000558	111.605421
0.000018	0.000583	116.583256
0.000019	0.000610	122.053935
0.000020	0.000636	127.278192
0.000021	0.000669	133.783856
0.000022	0.000711	142.260825
0.000023	0.000757	151.329303
0.000024	0.000809	161.778023
0.000025	0.000875	175.035979
0.000026	0.000953	190.610188
0.000027	0.001044	208.845670
0.000028	0.001153	230.530988
0.000029	0.001279	255.863539
0.000030	0.001439	287.701995
0.000031	0.001643	328.510571
0.000032	0.001884	376.712143
0.000033	0.002158	431.665766
0.000034	0.002465	493.075515
0.000035	0.002788	557.540646
0.000036	0.003110	622.005776
0.000037	0.003411	682.281944
0.000038	0.004540	730.729663
0.000039	0.005676	761.878083
0.000040	0.006811	774.100984
0.000041	0.007936	768.137496
0.000042	0.009043	748.718998
0.000043	0.010128	722.991993
0.000044	0.011194	697.807062
0.000045	0.012243	678.437999
0.000046	0.013281	667.447205
0.000047	0.014310	666.559771
0.000048	0.015331	675.381930
0.000049	0.016342	689.280486
0.000050	0.017343	705.347676
0.000051	0.018336	723.829992
0.000052	0.019327	742.311964
0.000053	0.020322	757.195795
0.000054	0.021327	767.496553
0.000055	0.022341	773.164802
0.000056	0.023362	774.643401
0.000057	0.024382	773.312421
0.000058	0.025399	770.700241
0.000059	0.026407	768.827532
0.000060	0.027409	768.137496
0.000061	0.028407	766.806860
0.000062	0.029403	765.180642
0.000063	0.030399	765.032679
0.000064	0.031395	766.017954
0.000065	0.032388	768.087718
0.000066	0.033378	771.291406
0.000067	0.034367	773.854494
0.000068	0.035355	776.023129
0.000069	0.036346	779.325001
0.000070	0.037338	782.479254
0.000071	0.038330	784.352307
0.000072	0.039319	785.337925
0.000073	0.040306	785.091434
0.000074	0.041289	784.647889
0.000075	0.042271	786.175580
0.000076	0.043250	788.639797
0.000077	0.044226	789.872249
0.000078	0.045197	790.316138
0.000079	0.046165	791.006174
0.000080	0.047131	792.336810
0.000081	0.048096	794.308046
0.000082	0.049062	795.934265
0.000083	0.050026	796.722828
0.000084	0.050989	797.314336
0.000085	0.051950	798.299954
0.000086	0.052911	799.778553
0.000087	0.053873	801.060097
0.000088	0.054838	802.045716
0.000089	0.055806	803.474879
0.000090	0.056775	804.559025
0.000091	0.057744	804.904043
0.000092	0.058712	806.087059
0.000093	0.059680	807.910676
0.000094	0.060650	809.044257
0.000095	0.061619	810.029876
0.000096	0.062586	810.966058
0.000097	0.063549	811.409604
0.000098	0.064509	812.592620
0.000099	0.065464	814.465673
0.000100	0.066416	815.353107
0.000101	0.067366	816.289633
0.000102	0.068312	818.063814
0.000103	0.069255	818.753850
0.000104	0.070195	819.049776
0.000105	0.071133	820.429847
0.000106	0.072072	821.563085
0.000107	0.073011	822.301870
0.000108	0.073951	823.188960
0.000109	0.074892	823.386359
0.000110	0.075835	823.386359
0.000111	0.076779	824.174922
0.000112	0.077726	825.259411
0.000113	0.078676	826.097410
0.000114	0.079628	826.294465
0.000115	0.080580	826.442084
0.000116	0.081532	828.216266
0.000117	0.082482	830.581955
0.000118	0.083431	831.518138
0.000119	0.084381	832.208174
0.000120	0.085329	833.293006
0.000121	0.086276	833.835422
0.000122	0.087221	834.673078
0.000123	0.088164	835.954278
0.000124	0.089106	836.841369
0.000125	0.090047	837.728460
0.000126	0.090988	838.024042
0.000127	0.091927	837.728460
0.000128	0.092865	838.517366
0.000129	0.093802	839.552420
0.000130	0.094739	839.946530
0.000131	0.095676	841.080111
0.000132	0.096611	842.263128
0.000133	0.097544	842.263128
0.000134	0.098476	842.263128
0.000135	0.099409	842.805200
0.000136	0.100342	843.445801
0.000137	0.101276	844.480854
0.000138	0.102210	845.614436
0.000139	0.103144	846.156508
0.000140	0.104080	846.501183
0.000141	0.105017	847.190875
0.000142	0.105956	848.225929
0.000143	0.106894	849.408946
0.000144	0.107832	850.345472
0.000145	0.108770	851.232562
0.000146	0.109710	852.563199
0.000147	0.110648	853.696780
0.000148	0.111585	854.189760
0.000149	0.112519	854.682741
0.000150	0.113451	855.175722
0.000151	0.114383	855.274593
0.000152	0.115313	855.176065
0.000153	0.116241	855.126630
0.000154	0.117166	855.422212
0.000155	0.118089	855.914850
0.000156	0.119012	856.259868
0.000157	0.119934	857.196394
0.000158	0.120855	858.477938
0.000159	0.121774	858.724428
0.000160	0.122694	859.266501
0.000161	0.123615	861.385700
0.000162	0.124538	862.666901
0.000163	0.125461	862.568374
0.000164	0.126384	863.307845
0.000165	0.127308	864.145500
0.000166	0.128234	863.997537
0.000167	0.129162	864.441426
0.000168	0.130091	865.870933
0.000169	0.131020	867.201569
0.000170	0.131949	867.891605
0.000171	0.132879	867.941040
0.000172	0.133811	868.384585
0.000173	0.134741	869.567259
0.000174	0.135669	870.010804
0.000175	0.136597	869.862841
0.000176	0.137524	870.454006
0.000177	0.138451	871.144042
0.000178	0.139376	871.784642
0.000179	0.140300	873.065843
0.000180	0.141223	874.199424
0.000181	0.142145	874.938895
0.000182	0.143068	875.579839
0.000183	0.143990	876.023384
0.000184	0.144911	876.910475
0.000185	0.145832	877.797566
0.000186	0.146753	878.093148
0.000187	0.147673	879.029674
0.000188	0.148593	879.966200
0.000189	0.149511	879.818237
0.000190	0.150429	880.064728
0.000191	0.151348	880.606801
0.000192	0.152266	880.507930
0.000193	0.153182	880.655893
0.000194	0.154097	880.902726
0.000195	0.155013	881.050689
0.000196	0.155930	882.085400
0.000197	0.156846	883.218981
0.000198	0.157761	883.761397
0.000199	0.158676	884.500525
0.000200	0.159592	884.697580
0.000201	0.160508	884.648488
0.000202	0.161424	885.979124
0.000203	0.162339	886.816779
0.000204	0.163254	885.978780
0.000205	0.164169	886.225271
0.000206	0.165083	887.753305
0.000207	0.165996	888.098323
0.000208	0.166907	887.654778
0.000209	0.167818	888.295378
0.000210	0.168728	889.773634
0.000211	0.169636	890.611289
0.000212	0.170543	890.907215
0.000213	0.171447	891.794649
0.000214	0.172351	892.780267
0.000215	0.173254	892.829359
0.000216	0.174156	892.977322
0.000217	0.175056	894.160339
0.000218	0.175957	894.850374
0.000219	0.176858	894.604227
0.000220	0.177758	895.047773
0.000221	0.178658	896.328973
0.000222	0.179558	897.807572
0.000223	0.180459	899.286171
0.000224	0.181360	899.976207
0.000225	0.182261	899.778809
0.000226	0.183161	899.482883
0.000227	0.184061	899.187301
0.000228	0.184960	899.088773
0.000229	0.185858	899.187301
0.000230	0.186755	898.842283
0.000231	0.187650	898.792847
0.000232	0.188546	899.876993
0.000233	0.189442	901.010574
0.000234	0.190338	901.405027
0.000235	0.191233	901.405371
0.000236	0.192130	901.257751
0.000237	0.193028	901.405714
0.000238	0.193927	901.750732
0.000239	0.194826	901.750389
0.000240	0.195725	902.243026
0.000241	0.196626	903.179552
0.000242	0.197528	902.982154
0.000243	0.198429	902.735663
0.000244	0.199330	904.214606
0.000245	0.200231	906.087658
0.000246	0.201133	907.024184
0.000247	0.202033	907.024184
0.000248	0.202932	906.284713
0.000249	0.203830	906.087315
0.000250	0.204727	906.875878
0.000251	0.205623	907.368859
0.000252	0.206517	907.615349
0.000253	0.207410	908.108330
0.000254	0.208302	908.453348
0.000255	0.209194	909.291346
0.000256	0.210084	910.375835
0.000257	0.210973	910.276965
0.000258	0.211862	910.375149
0.000259	0.212750	911.804656
0.000260	0.213637	912.495035
0.000261	0.214523	912.150017
0.000262	0.215409	912.494691
0.000263	0.216294	913.529402
0.000264	0.217178	914.416493
0.000265	0.218061	914.613548
0.000266	0.218944	914.515020
0.000267	0.219825	915.254491
0.000268	0.220707	915.747472
0.000269	0.221587	915.106872
0.000270	0.222466	915.500982
0.000271	0.223345	916.437164
0.000272	0.224224	915.895092
0.000273	0.225103	916.092490
0.000274	0.225981	917.571089
0.000275	0.226859	917.866671
0.000276	0.227736	918.310217
0.000277	0.228613	920.035306
0.000278	0.229490	920.971832
0.000279	0.230366	921.168887
0.000280	0.231241	921.415378
0.000281	0.232117	921.415378
0.000282	0.232991	921.661525
0.000283	0.233864	922.006542
0.000284	0.234737	922.499523
0.000285	0.235608	923.288086
0.000286	0.236479	922.696578
0.000287	0.237347	921.562997
0.000288	0.238214	922.154505
0.000289	0.239081	922.844541
0.000290	0.239947	922.647486
0.000291	0.240813	922.943069
0.000292	0.233333	923.041596
0.000293	0.234226	922.105413
0.000294	0.235118	921.218323
0.000295	0.235984	921.218323
0.000296	0.236820	922.253376
0.000297	0.237653	923.386614
0.000298	0.238518	923.534234
0.000299	0.239373	924.027214
0.000300	0.240187	925.850831
0.000301	0.241017	927.181811
0.000302	0.241884	927.280681
0.000303	0.242745	927.576264
0.000304	0.243603	927.920938
0.000305	0.244489	927.378522
0.000306	0.245361	927.279995
0.000307	0.246205	928.167429
0.000308	0.247065	928.512447
0.000309	0.247939	928.364484
0.000310	0.248809	928.364484
0.000311	0.249675	928.512447
0.000312	0.250523	929.251918
0.000313	0.251357	930.385499
0.000314	0.252198	931.272590
0.000315	0.253061	931.469645
0.000316	0.253947	930.828701
0.000317	0.254823	930.533119
0.000318	0.255671	931.174062
0.000319	0.256520	931.765227
0.000320	0.257359	932.652318
0.000321	0.258187	933.884770
0.000322	0.259051	933.884770
0.000323	0.259918	933.785899
0.000324	0.260749	934.820609
0.000325	0.261616	934.623554
0.000326	0.262508	933.539409
0.000327	0.263358	933.834991
0.000328	0.264209	934.032046
0.000329	0.265064	934.081138
0.000330	0.265877	935.510302
0.000331	0.266711	936.200681
0.000332	0.267584	935.609516
0.000333	0.268426	936.003626
0.000334	0.269253	936.940152
0.000335	0.270088	937.581096
0.000336	0.270930	938.024641
0.000337	0.271793	937.827243
0.000338	0.272648	937.876335
0.000339	0.273495	938.172261
0.000340	0.274366	937.728715
0.000341	0.275214	938.073390
0.000342	0.276026	939.601081
0.000343	0.276854	940.587042
0.000344	0.277704	940.883311
0.000345	0.278563	940.883311
0.000346	0.279417	941.080023
0.000347	0.280260	941.622096
0.000348	0.281140	940.932060
0.000349	0.282037	939.699952
0.000350	0.282869	940.636478
0.000351	0.283681	942.262696
0.000352	0.284526	942.755334
0.000353	0.285354	943.888915
0.000354	0.286183	944.973404
0.000355	0.287054	944.628729
0.000356	0.287908	944.875220
0.000357	0.288742	945.811403
0.000358	0.289597	946.057893
0.000359	0.290456	946.205856
0.000360	0.291320	946.156420
0.000361	0.292194	945.811403
0.000362	0.293057	945.811403
0.000363	0.293929	945.466385
0.000364	0.294793	945.367857
0.000365	0.295608	946.944984
0.000366	0.296429	948.275620
0.000367	0.297302	947.832074
0.000368	0.298172	947.437964
0.000369	0.299016	947.881510
0.000370	0.299861	948.275620
0.000371	0.300731	947.832074
0.000372	0.301619	946.797021
0.000373	0.302464	947.142039
0.000374	0.303287	948.226528
0.000375	0.304152	947.930945
0.000376	0.304996	948.325398
0.000377	0.305800	950.050488
0.000378	0.306654	950.149015
0.000379	0.307523	949.705127
0.000380	0.308339	951.084855
0.000381	0.309170	951.972289
0.000382	0.310058	950.937579
0.000383	0.310938	950.198107
0.000384	0.311792	950.345727
0.000385	0.312641	950.641310
0.000386	0.313484	951.183382
0.000387	0.314334	951.429873
0.000388	0.315191	951.479308
0.000389	0.316038	951.824669
0.000390	0.316903	951.578522
0.000391	0.317761	951.529087
0.000392	0.318579	952.859380
0.000393	0.319427	953.154962
0.000394	0.320326	951.775234
0.000395	0.321186	951.726142
0.000396	0.322013	952.761195
0.000397	0.322864	953.007686
0.000398	0.323707	953.549759
0.000399	0.324537	954.485942
0.000400	0.325399	954.387414
0.000401	0.326273	953.943869
0.000402	0.327120	954.387071
0.000403	0.327948	955.471216
0.000404	0.328792	956.062725
0.000405	0.329671	955.520652
0.000406	0.330548	955.028014
0.000407	0.331388	955.767486
0.000408	0.332227	956.556049
0.000409	0.333107	955.964541
0.000410	0.333996	955.028014
0.000411	0.334846	955.422124
0.000412	0.335666	956.802196
0.000413	0.336493	957.936120
0.000414	0.337338	958.478193
0.000415	0.338193	958.674905
0.000416	0.339063	958.378979
0.000417	0.339942	957.738379
0.000418	0.340803	957.738722
0.000419	0.341656	957.985212
0.000420	0.342522	957.787814
0.000421	0.343368	958.231359
0.000422	0.344206	958.921395
0.000423	0.345073	958.576377
0.000424	0.345925	958.674905
0.000425	0.346748	959.709958
0.000426	0.347597	959.857921
0.000427	0.348454	959.709958
0.000428	0.349292	960.153504
0.000429	0.350144	960.104412
0.000430	0.350995	960.005884
0.000431	0.351829	960.399994
0.000432	0.352679	960.252375
0.000433	0.353534	959.956792
0.000434	0.354369	960.301467
0.000435	0.355194	960.942067
0.000436	0.356006	962.026213
0.000437	0.356823	962.913304
0.000438	0.357682	962.420666
0.000439	0.358557	961.336520
0.000440	0.359424	960.547957
0.000441	0.360274	960.301467
0.000442	0.361092	961.090030
0.000443	0.361924	961.435048
0.000444	0.362797	960.350902
0.000445	0.363646	960.055320
0.000446	0.364464	960.794447
0.000447	0.365302	960.843540
0.000448	0.366141	960.892632
0.000449	0.366959	961.631759
0.000450	0.367783	962.223268
0.000451	0.368616	962.519194
0.000452	0.369449	962.815119
0.000453	0.370281	963.160137
0.000454	0.371121	963.258665
0.000455	0.371988	962.421009
0.000456	0.372860	961.435391
0.000457	0.373691	961.829501
0.000458	0.374504	962.815119
0.000459	0.375332	963.308100
0.000460	0.376163	963.702553
0.000461	0.377008	963.653461
0.000462	0.377866	963.160480
0.000463	0.378709	963.209229
0.000464	0.379552	963.258321
0.000465	0.380416	962.568629
0.000466	0.381291	961.533919
0.000467	0.382170	960.350902
0.000468	0.383029	959.808486
0.000469	0.383845	960.695577
0.000470	0.384657	961.730630
0.000471	0.385490	962.075991
0.000472	0.386310	962.864898
0.000473	0.387130	963.702553
0.000474	0.387978	963.603683
0.000475	0.388822	963.653118
0.000476	0.389661	963.850516
0.000477	0.390525	963.160480
0.000478	0.391395	962.273046
0.000479	0.392253	961.730630
0.000480	0.393100	961.582667
0.000481	0.393922	962.223268
0.000482	0.394745	962.864211
0.000483	0.395585	962.913990
0.000484	0.396430	962.815463
0.000485	0.397282	962.519537
0.000486	0.398120	962.667500
0.000487	0.398947	963.209916
0.000488	0.399813	962.421353
0.000489	0.400687	961.336864
0.000490	0.401521	961.533919
0.000491	0.402371	961.188901
0.000492	0.403243	960.055320
0.000493	0.404080	960.055320
0.000494	0.404886	961.090030
0.000495	0.405696	962.026213
0.000496	0.406526	962.322139
0.000497	0.407357	962.568629
0.000498	0.408179	963.110702
0.000499	0.409040	962.371574
0.000500	0.409933	960.547957
0.000501	0.410784	960.054976
0.000502	0.411613	960.301467
0.000503	0.412462	959.857921
0.000504	0.413288	960.104412
0.000505	0.414106	960.597392
0.000506	0.414970	959.512903
0.000507	0.415828	958.625469
0.000508	0.416638	959.315505
0.000509	0.417449	959.956449
0.000510	0.418284	959.858265
0.000511	0.419130	959.365627
0.000512	0.419983	958.675591
0.000513	0.420837	957.985556
0.000514	0.421701	956.999594
0.000515	0.422563	956.062725
0.000516	0.423405	955.865326
0.000517	0.424251	955.569744
0.000518	0.425110	954.880052
0.000519	0.425943	955.077450
0.000520	0.426765	955.718393
0.000521	0.427614	955.471903
0.000522	0.428477	954.781524
0.000523	0.429343	954.042053
0.000524	0.430209	953.352360
0.000525	0.431073	952.761195
0.000526	0.431954	951.627271
0.000527	0.432833	950.591874
0.000528	0.433698	950.049801
0.000529	0.434590	948.620638
0.000530	0.435493	946.895548
0.000531	0.436357	946.501095
0.000532	0.437208	946.550530
0.000533	0.438076	946.107328
0.000534	0.438959	945.220238
0.000535	0.439876	943.248658
0.000536	0.440807	940.833533
0.000537	0.441722	939.009916
0.000538	0.442658	936.545699
0.000539	0.443621	933.292918
0.000540	0.444577	930.385156
0.000541	0.445562	926.738265
0.000542	0.446613	921.119795
0.000543	0.447754	912.938237
0.000544	0.449053	900.074735
0.000545	0.450612	879.473563
